***Scan Config Information***,,,,,,,***Reference Scan Information***,,,,,,,
Scan Config Name:,Column 1,,,,,,Scan Config Name:,Built-in Factory Reference,,,,,,,,
Scan Config Type:,Slew,Num Section:,1,,,,Scan Config Type:,Slew,Num Section:,1,,,,,
Section Config Type:,Column,,,,,,Section Config Type:,Column,,,,,,,
Start Wavelength (nm):,900,,,,,,Start Wavelength (nm):,900,,,,,,,
End Wavelength (nm):,1700,,,,,,End Wavelength (nm):,1700,,,,,,,
Pattern Width (nm):,7.03,,,,,,Pattern Width (nm):,7.03,,,,,,,
Exposure (ms):,0.635,,,,,,Exposure (ms):,0.635,,,,,,,
Digital Resolution:,228,,,,,,Digital Resolution:,228,,,,,,,
Num Repeats:,6,,,,,,Num Repeats:,30,,,,,,,
PGA Gain:,64,,,,,,PGA Gain:,64,,,,,,,
System Temp (C):,34.87,,,,,,System Temp (C):,27.52,,,,,,,
Humidity (%):,41.55,,,,,,Humidity (%):,73.2,,,,,,,
Lamp Intensity:,2450,,,,,,Lamp Intensity:,2274,,,,,,,
Data Date-Time:,27/10/20 @ 12:54:6,,,,,,Data Date-Time:,9/7/19 @ 16:39:9,,,,,,,
Total Measurement Time in sec:,1.7891849,,,,,,,,,,,,,,
,,,,,,,,,,,,,,,
***General Information***,,,,,,,***Calibration Coefficients***,,,,,,,
Model Name:,NIR-X-XX,,,,,,Shift Vector Coefficients:,-6.85384978732833,0.0551332794684546,-0.000110731550088635,,,,,
Serial Number:,925R021,(95UB122GC1A925R021),,,,,Pixel to Wavelength Coefficients:,1790.66412099084,-0.917492857141292,-0.000239200785115314,,,,,
GUI Version:,2.4.4,,,,,,Versions (Cal/Ref/Cfg):,1,3,1,,,,,
TIVA Version:,2.1.0.67,,,,,,***Lamp Usage * **,,,,,,,
DLPC Version:,2.0.0,,,,,,Total Time(HH:MM:SS):,NA,,,,,,
UUID:,DE:67:0C:88:67:19:47:21,,,,,,***Device/Error Status***,,,,,,,
Main Board Version:,D,,,,,,Device Status:,0x00000001,,,,,,
Detector Board Version:,B,,,,,,Error status:,0x00000000,Error Code:,0x00000000000000000000000000000000,,,,
,,,,,,,,,,,,,,,
***Scan Data***,,,,,,,,,,,,,,
Wavelength (nm),Sample Signal (unitless)
901.630473432251,25071
905.531115772228,26922
909.427452498074,28660
913.319483609787,30930
917.207209107368,33000
921.090628990817,36822
924.969743260134,40135
930.13519799724,46721
934.004265833582,51448
937.869028055792,55640
941.72948466387,59311
945.585635657816,61821
949.43748103763,64213
953.285020803312,66151
957.128254954862,68518
960.967183492279,70107
966.07905725352,72946
969.907939357962,74645
973.732515848273,76622
977.552786724452,78048
981.368751986498,79795
985.180411634413,81259
988.987765668195,82302
992.790814087846,83461
996.589556893364,84478
1001.64784967874,85629
1005.43654605128,85813
1009.22093680969,86479
1013.00102195397,87181
1016.77680148412,86790
1020.54827540013,87090
1024.31544370202,87099
1028.07830638977,86947
1031.83686346339,86990
1036.8415752729,86655
1040.59008591354,86650
1044.33429094005,86350
1048.07419035243,86390
1051.80978415068,86165
1055.5410723348,86150
1059.26805490478,86177
1062.99073186063,86189
1066.70910320235,86181
1071.66023403599,86541
1075.36855894474,87259
1079.07257823935,87477
1082.77229191983,88643
1086.46769998618,89024
1090.1588024384,89519
1093.84559927648,90333
1097.52809050043,91851
1101.20627611025,92497
1106.10382596803,94091
1109.77196514487,95353
1113.43579870759,96397
1117.09532665617,97780
1120.75054899062,98910
1124.40146571093,99728
1128.04807681712,100158
1131.69038230917,101395
1135.32838218709,102835
1140.172351069,104190
1143.80030451395,105315
1147.42395234476,106489
1151.04329456145,107787
1154.658331164,108761
1158.26906215241,109742
1161.8754875267,110474
1165.47760728685,112002
1169.07542143287,113050
1173.86580933892,114359
1177.45357705197,115354
1181.03703915088,116455
1184.61619563566,117947
1188.19104650631,119486
1191.76159176283,120558
1195.32783140522,122064
1198.88976543347,123223
1202.44739384759,125165
1207.18420077777,126995
1210.73178275892,128895
1214.27505912594,130136
1217.81402987882,131323
1221.34869501757,132673
1224.87905454219,134588
1228.40510845267,135790
1231.92685674903,137024
1235.44429943125,138244
1240.12752538557,139782
1243.63492163481,141315
1247.13801226993,141951
1250.63679729091,142444
1254.13127669776,144151
1257.62145049048,145498
1261.10731866907,147541
1264.58888123353,149289
1268.06613818385,151110
1272.6957831623,153724
1276.16299367965,155167
1279.62589858286,156502
1283.08449787195,157844
1286.5387915469,159021
1289.98877960772,159917
1293.43446205441,160914
1296.87583888696,161493
1300.31291010539,162505
1304.88897410797,162952
1308.31599889342,164229
1311.73871806474,164072
1315.15713162192,164359
1318.57123956497,164326
1321.98104189389,164565
1325.38653860868,164698
1328.78772970934,164587
1332.18461519586,164544
1336.70709822258,164482
1340.09393727613,164043
1343.47647071555,163529
1346.85469854083,163043
1350.22862075199,162736
1353.59823734901,161464
1356.9635483319,160224
1360.32455370065,159346
1363.68125345528,158745
1368.15015550613,157662
1371.49680882778,157214
1374.8391565353,155944
1378.17719862868,154726
1381.51093510794,152967
1384.84036597306,150956
1388.16549122405,149565
1391.48631086091,148218
1394.80282488363,146282
1399.21814595862,145321
1402.52461354837,144639
1405.82677552399,143968
1409.12463188548,143187
1412.41818263283,142792
1415.70742776605,142911
1418.99236728514,142788
1422.2730011901,142390
1425.54932948093,142286
1429.91106958005,142457
1433.1773514379,142926
1436.43932768162,142994
1439.6969983112,143123
1442.95036332666,143405
1446.19942272798,143309
1449.44417651517,143140
1452.68462468823,142970
1456.99852463033,143203
1460.22892637041,142587
1463.45502249637,141972
1466.67681300819,141248
1469.89429790587,140984
1473.10747718943,140452
1476.31635085885,140000
1479.52091891415,139495
1482.72118135531,138787
1486.98150032154,137873
1490.17171632972,137110
1493.35762672377,136602
1496.53923150369,135365
1499.71653066948,134788
1502.88952422114,133940
1506.05821215866,132579
1509.22259448206,132113
1512.38267119132,130598
1516.58940918168,128951
1519.73943945797,127856
1522.88516412012,126815
1526.02658316814,125627
1529.16369660203,124707
1532.29650442179,123064
1535.42500662741,122043
1538.54920321891,120514
1541.66909419627,119072
1545.82225121076,116964
1548.93209575515,115903
1552.0376346854,113775
1555.13886800153,112294
1558.23579570352,110907
1561.32841779137,108874
1564.4167342651,107433
1567.50074512469,105736
1570.58045037016,103548
1574.68002640879,100914
1577.74968522127,98837
1580.81503841963,96853
1583.87608600385,94735
1586.93282797394,93012
1589.9852643299,90797
1593.03339507173,88810
1596.07722019942,86577
1599.11673971298,84291
1603.16273477575,81474
1606.19220785634,79389
1609.21737532279,76830
1612.23823717512,75544
1615.25479341331,73247
1618.26704403737,71010
1621.27498904729,69069
1624.27862844309,66734
1627.27796222475,64920
1631.27037631165,62107
1634.25966366034,60358
1637.2446453949,58249
1640.22532151532,55721
1643.20169202161,53871
1646.17375691377,51609
1649.1415161918,49277
1652.10496985569,47303
1655.06411790546,45010
1659.00295101649,41896
1661.95205263328,40122
1664.89684863594,38471
1667.83733902446,35910
1670.77352379886,33695
1673.70540295912,31440
1676.63297650524,27986
1679.55624443724,24533
1682.4752067551,21049
1686.36045889027,17044
1689.26937477516,14745
1692.17398504592,12348
1695.07428970255,10566
1697.97028874504,9164
1700.8619821734,7844
