##TITLE=Column 1
##JCAMP-DX=4.24
##DATA TYPE=INFRARED SPECTRUM
##Method:,Column 1,Built-In Reference,,,Model Name,NIR-X-XX
##Host Date-Time:,27/10/20 @ 12:53:24,9/7/19 @ 16:39:9,,,GUI Version,2.4.4
##Header Version:,1,1,,,Tiva Version,2.1.0.67
##System Temp (C):,33.81,27.52,,,DLPC Version,2.0.0
##Detector Temp (C),0,0,,,UUID,DE:67:0C:88:67:19:47:21
##Humidity (%):,42.56,73.2,,,Main Board Version,D
##Lamp PD:,2434,2274
##Shift Vector Coefficients:,-6.85384978732833,0.0551332794684546,-0.000110731550088635
##Pixel to Wavelength Coefficients:,1790.66412099084,-0.917492857141292,-0.000239200785115314
##Serial Number:,925R021,925R021
##Scan Config Name:,Column 1,SystemTest
##Scan Config Type:,Column,Column
##Start wavelength (nm):,900,900
##End wavelength (nm):,1700,1700
##Pattern Pixel Width (nm):,7.03,7.03
##Exposure (ms):,0.635,0.635
##Digital Resolution:,228,228
##NPOINTS=228
##Num Repeats:,6,30
##PGA Gain:,64,64
##Total Measurement Time in sec:,1.8031651
##XUNITS=Wavelength(nm)
##YUNITS=Intensity
##FIRSTX=901.630473432251
##LASTX=1700.8619821734
##PEAK TABLE=X+(Y..Y)
901.630473432251,26937
905.531115772228,28908
909.427452498074,31070
913.319483609787,33541
917.207209107368,36625
921.090628990817,40856
924.969743260134,45966
930.13519799724,53997
934.004265833582,59232
937.869028055792,65145
941.72948466387,69947
945.585635657816,73977
949.43748103763,77210
953.285020803312,80386
957.128254954862,83661
960.967183492279,86807
966.07905725352,90779
969.907939357962,93952
973.732515848273,96703
977.552786724452,99431
981.368751986498,102197
985.180411634413,104112
988.987765668195,106051
992.790814087846,108139
996.589556893364,109181
1001.64784967874,111503
1005.43654605128,112475
1009.22093680969,113359
1013.00102195397,113284
1016.77680148412,113907
1020.54827540013,114262
1024.31544370202,113998
1028.07830638977,113762
1031.83686346339,113565
1036.8415752729,113614
1040.59008591354,112990
1044.33429094005,112277
1048.07419035243,111888
1051.80978415068,111684
1055.5410723348,111370
1059.26805490478,111039
1062.99073186063,110823
1066.70910320235,110585
1071.66023403599,110768
1075.36855894474,110448
1079.07257823935,111300
1082.77229191983,111545
1086.46769998618,111884
1090.1588024384,112309
1093.84559927648,113221
1097.52809050043,113928
1101.20627611025,114537
1106.10382596803,115460
1109.77196514487,116694
1113.43579870759,117496
1117.09532665617,118501
1120.75054899062,119299
1124.40146571093,120161
1128.04807681712,121098
1131.69038230917,122253
1135.32838218709,122704
1140.172351069,123989
1143.80030451395,124704
1147.42395234476,125487
1151.04329456145,126602
1154.658331164,127741
1158.26906215241,128971
1161.8754875267,129908
1165.47760728685,131114
1169.07542143287,132020
1173.86580933892,134005
1177.45357705197,135290
1181.03703915088,136644
1184.61619563566,138228
1188.19104650631,139667
1191.76159176283,141358
1195.32783140522,143798
1198.88976543347,146014
1202.44739384759,147991
1207.18420077777,150723
1210.73178275892,153019
1214.27505912594,155302
1217.81402987882,157694
1221.34869501757,159730
1224.87905454219,162163
1228.40510845267,164421
1231.92685674903,166186
1235.44429943125,168127
1240.12752538557,170681
1243.63492163481,172466
1247.13801226993,174396
1250.63679729091,175613
1254.13127669776,177371
1257.62145049048,179637
1261.10731866907,182112
1264.58888123353,185533
1268.06613818385,188052
1272.6957831623,191570
1276.16299367965,193607
1279.62589858286,195231
1283.08449787195,197292
1286.5387915469,199011
1289.98877960772,199989
1293.43446205441,202045
1296.87583888696,202700
1300.31291010539,203633
1304.88897410797,205251
1308.31599889342,205966
1311.73871806474,206411
1315.15713162192,206592
1318.57123956497,207144
1321.98104189389,207227
1325.38653860868,207448
1328.78772970934,207565
1332.18461519586,207388
1336.70709822258,207147
1340.09393727613,206972
1343.47647071555,206621
1346.85469854083,206070
1350.22862075199,205054
1353.59823734901,203963
1356.9635483319,202730
1360.32455370065,201392
1363.68125345528,200398
1368.15015550613,199354
1371.49680882778,198472
1374.8391565353,197143
1378.17719862868,195635
1381.51093510794,193571
1384.84036597306,191108
1388.16549122405,189113
1391.48631086091,187546
1394.80282488363,186017
1399.21814595862,184384
1402.52461354837,183738
1405.82677552399,183172
1409.12463188548,182612
1412.41818263283,181906
1415.70742776605,182155
1418.99236728514,181784
1422.2730011901,182231
1425.54932948093,181943
1429.91106958005,182206
1433.1773514379,182398
1436.43932768162,182795
1439.6969983112,182889
1442.95036332666,182752
1446.19942272798,182954
1449.44417651517,183078
1452.68462468823,183080
1456.99852463033,182662
1460.22892637041,182590
1463.45502249637,181568
1466.67681300819,180952
1469.89429790587,180573
1473.10747718943,179479
1476.31635085885,179047
1479.52091891415,178319
1482.72118135531,177686
1486.98150032154,176537
1490.17171632972,175774
1493.35762672377,174618
1496.53923150369,173759
1499.71653066948,172746
1502.88952422114,171548
1506.05821215866,170341
1509.22259448206,168852
1512.38267119132,167877
1516.58940918168,165828
1519.73943945797,164278
1522.88516412012,162639
1526.02658316814,161729
1529.16369660203,160285
1532.29650442179,158923
1535.42500662741,157079
1538.54920321891,155146
1541.66909419627,153535
1545.82225121076,151025
1548.93209575515,149158
1552.0376346854,147541
1555.13886800153,145698
1558.23579570352,143921
1561.32841779137,141707
1564.4167342651,139721
1567.50074512469,137149
1570.58045037016,135667
1574.68002640879,132332
1577.74968522127,130141
1580.81503841963,127293
1583.87608600385,124452
1586.93282797394,122450
1589.9852643299,120060
1593.03339507173,117244
1596.07722019942,115010
1599.11673971298,112462
1603.16273477575,109160
1606.19220785634,106579
1609.21737532279,104526
1612.23823717512,101675
1615.25479341331,99367
1618.26704403737,97324
1621.27498904729,94795
1624.27862844309,92425
1627.27796222475,89811
1631.27037631165,86859
1634.25966366034,84503
1637.2446453949,82207
1640.22532151532,79731
1643.20169202161,77227
1646.17375691377,74939
1649.1415161918,72673
1652.10496985569,70076
1655.06411790546,67522
1659.00295101649,63982
1661.95205263328,61128
1664.89684863594,58412
1667.83733902446,54490
1670.77352379886,50950
1673.70540295912,46057
1676.63297650524,40904
1679.55624443724,35730
1682.4752067551,30812
1686.36045889027,24575
1689.26937477516,20639
1692.17398504592,17745
1695.07428970255,14964
1697.97028874504,12692
1700.8619821734,11194
##END=
