***Scan Config Information***,,,,,,,***Reference Scan Information***,,,,,,,
Scan Config Name:,Column 1,,,,,,Scan Config Name:,Built-in Factory Reference,,,,,,,,
Scan Config Type:,Slew,Num Section:,1,,,,Scan Config Type:,Slew,Num Section:,1,,,,,
Section Config Type:,Column,,,,,,Section Config Type:,Column,,,,,,,
Start Wavelength (nm):,900,,,,,,Start Wavelength (nm):,900,,,,,,,
End Wavelength (nm):,1700,,,,,,End Wavelength (nm):,1700,,,,,,,
Pattern Width (nm):,7.03,,,,,,Pattern Width (nm):,7.03,,,,,,,
Exposure (ms):,0.635,,,,,,Exposure (ms):,0.635,,,,,,,
Digital Resolution:,228,,,,,,Digital Resolution:,228,,,,,,,
Num Repeats:,6,,,,,,Num Repeats:,30,,,,,,,
PGA Gain:,64,,,,,,PGA Gain:,64,,,,,,,
System Temp (C):,34.4,,,,,,System Temp (C):,27.52,,,,,,,
Humidity (%):,42.01,,,,,,Humidity (%):,73.2,,,,,,,
Lamp Intensity:,2442,,,,,,Lamp Intensity:,2274,,,,,,,
Data Date-Time:,27/10/20 @ 12:53:48,,,,,,Data Date-Time:,9/7/19 @ 16:39:9,,,,,,,
Total Measurement Time in sec:,1.8091549,,,,,,,,,,,,,,
,,,,,,,,,,,,,,,
***General Information***,,,,,,,***Calibration Coefficients***,,,,,,,
Model Name:,NIR-X-XX,,,,,,Shift Vector Coefficients:,-6.85384978732833,0.0551332794684546,-0.000110731550088635,,,,,
Serial Number:,925R021,(95UB122GC1A925R021),,,,,Pixel to Wavelength Coefficients:,1790.66412099084,-0.917492857141292,-0.000239200785115314,,,,,
GUI Version:,2.4.4,,,,,,Versions (Cal/Ref/Cfg):,1,3,1,,,,,
TIVA Version:,2.1.0.67,,,,,,***Lamp Usage * **,,,,,,,
DLPC Version:,2.0.0,,,,,,Total Time(HH:MM:SS):,NA,,,,,,
UUID:,DE:67:0C:88:67:19:47:21,,,,,,***Device/Error Status***,,,,,,,
Main Board Version:,D,,,,,,Device Status:,0x00000001,,,,,,
Detector Board Version:,B,,,,,,Error status:,0x00000000,Error Code:,0x00000000000000000000000000000000,,,,
,,,,,,,,,,,,,,,
***Scan Data***,,,,,,,,,,,,,,
Wavelength (nm),Sample Signal (unitless)
901.630473432251,23284
905.531115772228,25337
909.427452498074,27688
913.319483609787,29893
917.207209107368,32466
921.090628990817,36402
924.969743260134,40611
930.13519799724,47320
934.004265833582,52849
937.869028055792,57354
941.72948466387,61906
945.585635657816,65390
949.43748103763,68102
953.285020803312,70892
957.128254954862,74137
960.967183492279,76649
966.07905725352,79886
969.907939357962,82337
973.732515848273,84927
977.552786724452,87245
981.368751986498,89585
985.180411634413,91102
988.987765668195,93341
992.790814087846,94592
996.589556893364,95758
1001.64784967874,97695
1005.43654605128,98037
1009.22093680969,98445
1013.00102195397,99173
1016.77680148412,99529
1020.54827540013,99321
1024.31544370202,99540
1028.07830638977,99471
1031.83686346339,99313
1036.8415752729,98992
1040.59008591354,98794
1044.33429094005,98305
1048.07419035243,97634
1051.80978415068,97614
1055.5410723348,97092
1059.26805490478,97313
1062.99073186063,96447
1066.70910320235,96451
1071.66023403599,96240
1075.36855894474,96431
1079.07257823935,96498
1082.77229191983,97343
1086.46769998618,97419
1090.1588024384,97117
1093.84559927648,98169
1097.52809050043,98196
1101.20627611025,98917
1106.10382596803,100054
1109.77196514487,100492
1113.43579870759,101352
1117.09532665617,102009
1120.75054899062,102261
1124.40146571093,102881
1128.04807681712,103346
1131.69038230917,104129
1135.32838218709,105125
1140.172351069,106392
1143.80030451395,106937
1147.42395234476,108083
1151.04329456145,109304
1154.658331164,110258
1158.26906215241,111040
1161.8754875267,112208
1165.47760728685,113447
1169.07542143287,114729
1173.86580933892,116068
1177.45357705197,117333
1181.03703915088,118780
1184.61619563566,120645
1188.19104650631,121966
1191.76159176283,123836
1195.32783140522,125556
1198.88976543347,127576
1202.44739384759,129273
1207.18420077777,131905
1210.73178275892,133709
1214.27505912594,135441
1217.81402987882,137483
1221.34869501757,139271
1224.87905454219,141177
1228.40510845267,143104
1231.92685674903,144833
1235.44429943125,146396
1240.12752538557,148634
1243.63492163481,150066
1247.13801226993,151302
1250.63679729091,152604
1254.13127669776,153787
1257.62145049048,156083
1261.10731866907,158165
1264.58888123353,160561
1268.06613818385,162976
1272.6957831623,165542
1276.16299367965,167422
1279.62589858286,169108
1283.08449787195,170432
1286.5387915469,171901
1289.98877960772,173103
1293.43446205441,174121
1296.87583888696,175080
1300.31291010539,176036
1304.88897410797,176788
1308.31599889342,177423
1311.73871806474,177938
1315.15713162192,177881
1318.57123956497,178336
1321.98104189389,178513
1325.38653860868,178871
1328.78772970934,178430
1332.18461519586,178457
1336.70709822258,178378
1340.09393727613,177707
1343.47647071555,177918
1346.85469854083,176888
1350.22862075199,175895
1353.59823734901,175315
1356.9635483319,174306
1360.32455370065,172817
1363.68125345528,171984
1368.15015550613,171032
1371.49680882778,170205
1374.8391565353,169353
1378.17719862868,167744
1381.51093510794,165802
1384.84036597306,164335
1388.16549122405,162570
1391.48631086091,160827
1394.80282488363,159808
1399.21814595862,158377
1402.52461354837,157677
1405.82677552399,157394
1409.12463188548,156479
1412.41818263283,156377
1415.70742776605,156173
1418.99236728514,156271
1422.2730011901,155996
1425.54932948093,156126
1429.91106958005,156105
1433.1773514379,156449
1436.43932768162,156218
1439.6969983112,156468
1442.95036332666,156842
1446.19942272798,157632
1449.44417651517,156983
1452.68462468823,156569
1456.99852463033,156421
1460.22892637041,156393
1463.45502249637,156072
1466.67681300819,155539
1469.89429790587,155155
1473.10747718943,154320
1476.31635085885,153697
1479.52091891415,153018
1482.72118135531,152373
1486.98150032154,151463
1490.17171632972,150869
1493.35762672377,149906
1496.53923150369,148800
1499.71653066948,148352
1502.88952422114,147094
1506.05821215866,146295
1509.22259448206,144807
1512.38267119132,143905
1516.58940918168,142075
1519.73943945797,141083
1522.88516412012,140160
1526.02658316814,138532
1529.16369660203,137274
1532.29650442179,135600
1535.42500662741,134263
1538.54920321891,132988
1541.66909419627,131505
1545.82225121076,129472
1548.93209575515,128106
1552.0376346854,126058
1555.13886800153,124359
1558.23579570352,123012
1561.32841779137,121072
1564.4167342651,119283
1567.50074512469,117185
1570.58045037016,115564
1574.68002640879,112637
1577.74968522127,110841
1580.81503841963,108480
1583.87608600385,106352
1586.93282797394,104012
1589.9852643299,101614
1593.03339507173,99626
1596.07722019942,97592
1599.11673971298,95394
1603.16273477575,92715
1606.19220785634,90525
1609.21737532279,88378
1612.23823717512,86020
1615.25479341331,83625
1618.26704403737,81938
1621.27498904729,80405
1624.27862844309,78217
1627.27796222475,75731
1631.27037631165,72584
1634.25966366034,70504
1637.2446453949,68494
1640.22532151532,65784
1643.20169202161,63451
1646.17375691377,60706
1649.1415161918,58297
1652.10496985569,55738
1655.06411790546,53376
1659.00295101649,49897
1661.95205263328,48171
1664.89684863594,45917
1667.83733902446,43679
1670.77352379886,41047
1673.70540295912,38070
1676.63297650524,34086
1679.55624443724,30075
1682.4752067551,26274
1686.36045889027,21348
1689.26937477516,18215
1692.17398504592,15540
1695.07428970255,13404
1697.97028874504,11452
1700.8619821734,9540
